File: Data/Thesis_Samples_Data/Flexural_Layered_1/Flexural_Layered_1.csv
"File Path: C:\Users\Lab User\Desktop\Will\Thesis Tests\Test Run 1 04-8-22 13 59 50 PM\DAQ- Crosshead, … - (Timed).txt   ",,
Test: MTS EM Flexure (3-Point Bend) - Will 1,,
Test Run: Test Run 1,,
Date: 4/8/2022 1:34:20 PM,,
,,
,,
Crosshead ,Load ,Time
mm,N,sec
4.88E-05,1.14365,0.146
0.01015625,3.22669,5.106
0.020166,3.16133,10.066
0.02993164,4.37201,15.026
0.0399414,5.89561,19.986
0.0498535,7.66388,24.946
0.0597656,9.50824,29.906
0.0696289,11.1806,34.866
0.0796875,12.8934,39.826
0.0894531,14.1319,44.786
0.0995117,15.3944,49.746
0.109277,13.8787,54.706
0.119336,13.2483,59.666
0.129102,15.471,64.626
0.139209,18.0203,69.586
0.148975,20.4312,74.546
0.158984,23.0874,79.506
0.168799,25.7664,84.466
0.178906,28.6654,89.426
0.188672,31.1974,94.386
0.198682,33.8893,99.346
0.208496,36.3904,104.306
0.218555,39.1294,109.266
0.22832,41.5636,114.226
0.238379,44.086,119.186
0.248242,46.6379,124.146
0.258203,40.1034,129.106
0.268066,41.3751,134.066
0.278027,43.0329,139.026
0.287891,44.3088,143.986
0.297852,45.9059,148.946
0.307764,46.8052,153.906
0.317725,48.2944,158.866
0.327588,49.4315,163.826
0.337549,48.1292,168.786
0.34751,49.0534,173.746
0.357324,38.7153,178.706
0.367285,39.5586,183.666
0.377197,35.1843,188.626
0.387158,36.2737,193.586
0.396973,37.0414,198.546
0.406982,37.9232,203.506
0.416895,38.471,208.466
0.426807,38.7797,213.426
0.43667,33.4547,218.386
0.446729,32.054,223.346
0.456494,30.6631,228.306
0.466553,31.0082,233.266
0.476318,31.2782,238.226
0.486377,31.5094,243.186
0.496143,26.2211,248.146
0.50625,26.7164,253.106
0.516064,27.2735,258.066
0.526025,27.5955,263.026
0.53584,27.9356,267.986
0.545947,28.2444,272.946
0.555664,28.432,277.906
0.565723,28.7473,282.866
0.575537,28.9733,287.826
0.585596,29.3066,292.786
0.595361,29.4431,297.746
0.60542,29.6158,302.706
0.615234,29.8454,307.666
0.625244,28.6092,312.626
0.635059,28.9934,317.586
0.645117,28.4438,322.546
0.654932,28.6782,327.506
0.664941,28.8856,332.466
0.674756,28.8133,337.426
0.684814,29.0779,342.386
0.69458,29.5257,347.346
0.70459,29.7811,352.306
0.714502,30.0195,357.266
0.724365,30.2399,362.226
0.734326,30.5595,367.186
0.744287,30.8304,372.146
0.75415,22.6656,377.106
0.764063,22.8833,382.066
0.774023,23.1096,387.026
0.783936,23.4889,391.986
0.793848,23.7692,396.946
0.80376,24.0131,401.906
0.813721,24.286,406.866
0.823535,24.5263,411.826
0.833594,25.0243,416.786
0.843359,25.4202,421.746
0.853467,25.5911,426.706
0.863184,25.7766,431.666
0.873242,26.316,436.626
0.883105,26.7127,441.586
0.893066,26.4772,446.546
0.902881,26.8573,451.506
0.912988,27.4232,456.466
0.922705,27.9735,461.426
0.932813,28.1677,466.386
0.942529,28.1635,471.346
0.952637,27.9341,476.306
0.962354,27.8947,481.266
0.972461,28.2768,486.226
0.982275,28.5696,491.186
0.992285,28.6175,496.146
1.0021,28.8205,501.106
1.01216,29.0151,506.066
1.02192,29.3344,511.026
1.03198,29.7335,515.986
1.04175,30.0593,520.946
1.05186,30.2534,525.906
1.06157,30.5046,530.866
1.07168,30.7899,535.826
1.08149,23.0333,540.786
1.09146,23.7964,545.746
1.10132,24.2594,550.706
1.11133,24.2347,555.666
1.12119,24.5272,560.626
1.13115,24.6197,565.586
1.14102,24.922,570.546
1.15103,25.1394,575.506
1.16084,25.4548,580.466
1.17085,25.7394,585.426
1.18076,26.1276,590.386
1.19063,26.4534,595.346
1.20059,22.7804,600.306
1.2105,17.7698,605.266
1.22046,17.9036,610.226
1.23027,18.2873,615.186
1.24028,18.5771,620.146
1.2502,18.6929,625.106
1.26006,18.9889,630.066
1.26997,18.9312,635.026
1.27998,18.9356,639.986
1.28975,19.024,644.946
1.2998,19.2328,649.906
1.30962,19.4285,654.866
1.31968,19.4367,659.826
1.32944,19.6155,664.786
1.3395,19.6804,669.746
1.34932,19.7898,674.706
1.35933,19.9027,679.666
1.36914,20.1334,684.626
1.3792,20.2588,689.586
1.38896,20.3098,694.546
1.39902,20.3272,699.506
1.40884,20.3593,704.466
1.4189,20.4882,709.426
1.42861,20.775,714.386
1.43872,20.8519,719.346
1.44854,20.6612,724.306
1.4585,20.7792,729.266
1.46836,20.8526,734.226
1.47837,20.896,739.186
1.48818,20.9618,744.146
1.49819,20.8941,749.106
1.50806,20.9725,754.066
1.51807,21.0312,759.026
1.52788,21.1031,763.986
1.53789,21.2042,768.946
1.5478,21.3326,773.906
1.55767,21.4664,778.866
1.56763,21.5698,783.826
1.57754,21.5703,788.786
1.58745,21.2275,793.746
1.59731,21.2722,798.706
1.60732,21.4794,803.666
1.61724,21.6845,808.626
1.6271,21.8501,813.586
1.63706,22.014,818.546
1.64702,22.1761,823.506
1.65684,22.3903,828.466
1.66685,22.5919,833.426
1.67666,22.4539,838.386
1.68667,22.7502,843.346
1.69648,23.0262,848.306
1.70654,23.1616,853.266
1.71636,23.0608,858.226
1.72637,23.2507,863.186
1.73618,23.2775,868.146
1.74624,23.5175,873.106
1.75601,23.5972,878.066
1.76606,23.843,883.026
1.77583,23.927,887.986
1.78594,24.1913,892.946
1.79565,24.3387,897.906
1.80576,24.5212,902.866
1.81553,24.3806,907.826
1.82554,24.8823,912.786
1.83535,25.0319,917.746
1.84541,25.152,922.706
1.85522,25.2872,927.666
1.86523,25.4632,932.626
1.87505,25.7704,937.586
1.88511,25.854,942.546
1.89487,26.0064,947.506
1.90493,26.0333,952.466
1.91479,26.45,957.426
1.92476,26.6181,962.386
1.93462,26.7553,967.346
1.94463,26.7915,972.306
1.95444,27.0601,977.266
1.9644,27.3213,982.226
1.97432,27.296,987.186
1.98428,26.6429,992.146
1.99414,27.1757,997.106
2.0041,27.3641,1002.07
2.01401,27.4265,1007.03
2.02388,27.665,1011.99
2.03389,27.7991,1016.95
2.04375,27.4316,1021.91
2.05376,27.2482,1026.87
2.06353,27.7114,1031.83
2.07358,27.9515,1036.79
2.08345,27.9644,1041.75
2.09336,27.9688,1046.71
2.10322,27.9957,1051.67
2.11328,28.0603,1056.63
2.123,27.8787,1061.59
2.13311,27.8234,1066.55
2.14287,28.019,1071.51
2.15293,28.1063,1076.47
2.1627,28.1128,1081.43
2.1728,28.2797,1086.39
2.18257,28.3841,1091.35
2.19258,28.4551,1096.31
2.20239,28.5099,1101.27
2.2125,28.2534,1106.23
2.22227,27.7213,1111.19
2.23232,28.0333,1116.15
2.24209,28.0082,1121.11
2.25215,28.1022,1126.07
2.26187,28.3176,1131.03
2.27197,28.4014,1135.99
2.28179,28.2761,1140.95
2.2918,28.4741,1145.91
2.30161,28.4803,1150.87
2.31167,28.5448,1155.83
2.32148,28.6225,1160.79
2.33149,28.4765,1165.75
2.34136,28.5732,1170.71
2.35137,28.6872,1175.67
2.36113,28.5359,1180.63
2.37119,28.343,1185.59
2.38105,28.7381,1190.55
2.39097,28.8608,1195.51
2.40088,28.641,1200.47
2.41084,28.7962,1205.43
2.42075,29.1346,1210.39
2.43062,29.2247,1215.35
2.44058,29.0339,1220.31
2.45054,29.1537,1225.27
2.4604,28.8983,1230.23
2.47031,29.1165,1235.19
2.48027,27.4402,1240.15
2.49009,27.6786,1245.11
2.50015,27.8951,1250.07
2.50996,28.0945,1255.03
2.51997,28.1755,1259.99
2.52979,28.2388,1264.95
2.53984,28.347,1269.91
2.54966,28.6036,1274.87
2.55962,28.5836,1279.83
2.56948,28.6508,1284.79
2.57954,28.739,1289.75
2.58931,28.9731,1294.71
2.59932,28.8562,1299.67
2.60913,28.8898,1304.63
2.61924,28.8366,1309.59
2.62896,29.0072,1314.55
2.63901,28.9844,1319.51
2.64883,29.0034,1324.47
2.65884,29.1819,1329.43
2.66865,29.1283,1334.39
2.67871,29.1318,1339.35
2.68853,29.1134,1344.31
2.69854,29.2437,1349.27
2.70835,29.2864,1354.23
2.71836,29.2159,1359.19
2.72817,29.1712,1364.15
2.73823,29.2462,1369.11
2.7481,29.3414,1374.07
2.75801,29.3673,1379.03
2.76792,29.3047,1383.99
2.77788,29.2505,1388.95
2.78779,29.2266,1393.91
2.79766,29.3941,1398.87
2.80762,29.3928,1403.83
2.81758,29.5094,1408.79
2.82739,29.6485,1413.75
2.8374,29.4876,1418.71
2.84731,29.3698,1423.67
2.85718,29.3618,1428.63
2.86719,29.3393,1433.59
2.877,29.4265,1438.55
2.88701,29.6753,1443.51
2.89687,29.7132,1448.47
2.90684,29.5803,1453.43
2.9167,29.7022,1458.39
2.92666,29.9411,1463.35
2.93652,30.0449,1468.31
2.94658,30.0372,1473.27
2.9563,30.0895,1478.23
2.96636,30.2833,1483.19
2.97183,30.2479,1485.91