File: Data/Thesis_Samples_Data/Flexural_Solid_1/Flexural_Solid_1.csv
"File Path: C:\Users\Lab User\Desktop\Will\Thesis Tests\Test Run 4 04-8-22 14 52 26 PM\DAQ- Crosshead, … - (Timed).txt   ",,
Test: MTS EM Flexure (3-Point Bend) - Will 1,,
Test Run: Test Run 4,,
Date: 4/8/2022 2:47:17 PM,,
,,
,,
Crosshead ,Load ,Time
mm,N,sec
0,2.75353,0.02
0.000927734,3.77213,0.7
0.002734375,5.31021,1.38
0.004052734,5.81041,2.06
0.005371094,6.31203,2.74
0.006738281,6.99048,3.42
0.008203125,7.51274,4.1
0.009619141,8.08134,4.78
0.0109375,9.03152,5.46
0.012207,9.96446,6.14
0.013623,10.9695,6.82
0.0150391,12.1996,7.5
0.0164062,13.6105,8.18
0.0177246,14.9498,8.86
0.01899414,16.3545,9.54
0.0204102,18.1244,10.22
0.021875,20.2364,10.9
0.0232422,22.1303,11.58
0.0245117,24.1677,12.26
0.0258301,26.3494,12.94
0.0272461,28.9446,13.62
0.0286621,31.3041,14.3
0.0300293,34.0839,14.98
0.0312988,36.9806,15.66
0.0326172,39.8872,16.34
0.0340332,43.4122,17.02
0.03540039,47.1181,17.7
0.0367676,51.1371,18.38
0.0380371,54.7536,19.06
0.0393555,58.9948,19.74
0.0408203,63.8761,20.42
0.0422363,68.5731,21.1
0.0436035,73.2031,21.78
0.044873,77.8965,22.46
0.0461914,82.693,23.14
0.0476562,88.1678,23.82
0.0490723,93.8376,24.5
0.0503906,99.1627,25.18
0.0516602,104.547,25.86
0.0529785,109.878,26.54
0.0544434,116.63,27.22
0.0558594,123.287,27.9
0.0572266,129.429,28.58
0.0584961,135.297,29.26
0.05986328,142.23,29.94
0.0612793,149.31,30.62
0.0626953,155.16,31.3
0.0640137,159.955,31.98
0.0652832,164.93,32.66
0.0666016,171.446,33.34
0.06801758,179.825,34.02
0.06943359,188.508,34.7
0.07075195,195.106,35.38
0.0720215,199.611,36.06
0.07338867,206.863,36.74
0.0748535,215.551,37.42
0.0762695,223.371,38.1
0.0775879,230.639,38.78
0.0788574,237.666,39.46
0.0802734,245.528,40.14
0.0816895,252.776,40.82
0.0830566,259.743,41.5
0.0843262,264.91,42.18
0.0855957,269.031,42.86
0.0870117,272.943,43.54
0.0884766,273.777,44.22
0.0898926,276.412,44.9
0.0912109,279.363,45.58
0.09248047,224.885,46.26
0.0938965,227.012,46.94
0.0953125,229.614,47.62
0.0966797,231.985,48.3
0.0979492,232.761,48.98
0.0992187,233.444,49.66
0.100635,230.998,50.34
0.102051,230.305,51.02
0.103418,230.048,51.7
0.104687,229.588,52.38
0.106006,228.406,53.06
0.107422,228.596,53.74
0.108887,225.898,54.42
0.110254,224.772,55.1
0.111523,223.679,55.78
0.112842,222.45,56.46
0.114307,220.122,57.14
0.115674,215.932,57.82
0.117041,212.731,58.5
0.118311,210.239,59.18
0.119629,207.726,59.86
0.121094,201.249,60.54
0.12251,196.612,61.22
0.123828,188.572,61.9
0.125146,183.854,62.58
0.126465,180.454,63.26
0.12793,177.293,63.94
0.129297,172.808,64.62
0.130615,169.398,65.3
0.131885,166.641,65.98
0.133252,163.513,66.66
0.134668,159.239,67.34
0.136084,149.481,68.02
0.137402,145.635,68.7
0.138672,143.206,69.38
0.140039,140.768,70.06
0.141504,137.916,70.74
0.14292,134.998,71.42
0.144238,132.101,72.1
0.145508,129.716,72.78
0.146875,127.978,73.46
0.14834,125.981,74.14
0.149707,123.659,74.82
0.151025,121.409,75.5
0.152295,119.495,76.18
0.153711,118.055,76.86
0.155127,114.124,77.54
0.156543,111.536,78.22
0.157812,109.803,78.9
0.159082,108.241,79.58
0.160547,106.256,80.26
0.161914,103.621,80.94
0.163281,101.611,81.62
0.164551,99.8881,82.3
0.165869,98.1107,82.98
0.167236,96.237,83.66
0.168701,93.9448,84.34
0.17002,90.8824,85.02
0.171338,88.2996,85.7
0.172656,86.11,86.38
0.174121,83.8035,87.06
0.175537,81.0942,87.74
0.176904,78.1651,88.42
0.178174,75.6397,89.1
0.179492,73.4192,89.78
0.180908,69.4983,90.46
0.182324,66.3487,91.14
0.183691,64.487,91.82
0.184961,63.0083,92.5
0.1862793,61.5388,93.18
0.187744,60.4645,93.86
0.18916,59.4464,94.54
0.190479,58.2346,95.22
0.191748,56.9993,95.9
0.193115,56.3074,96.58
0.194531,55.3008,97.26
0.195947,54.3661,97.94
0.197266,53.5066,98.62
0.198535,52.8225,99.3
0.199854,52.1718,99.98
0.201318,51.2876,100.66
0.202686,50.6485,101.34
0.204004,50.1316,102.02
0.205273,49.3419,102.7
0.206641,48.9254,103.38
0.208105,48.491,104.06
0.209521,47.9916,104.74
0.21084,47.3186,105.42
0.212109,46.9044,106.1
0.213525,46.6863,106.78
0.21499,46.163,107.46
0.216357,45.747,108.14
0.217627,45.5986,108.82
0.218945,45.3552,109.5
0.220313,45.1458,110.18
0.221777,44.7387,110.86
0.223145,44.4328,111.54
0.224463,44.1606,112.22
0.225732,43.883,112.9
0.227148,43.7568,113.58
0.228564,43.5179,114.26
0.229932,43.2375,114.94
0.23125,42.9477,115.62
0.23252,42.8948,116.3
0.233936,42.7345,116.98
0.235352,42.4942,117.66
0.23667,42.3089,118.34
0.237988,42.1489,119.02
0.239258,42.2618,119.7
0.240723,42.0604,120.38
0.242187,41.8446,121.06
0.243506,41.6991,121.74
0.244824,41.5641,122.42
0.246094,41.2686,123.1
0.247559,41.258,123.78
0.248975,41.2676,124.46
0.250342,41.1127,125.14
0.251563,40.954,125.82
0.25293,41.035,126.5
0.254395,40.9839,127.18
0.255762,40.8883,127.86
0.257129,40.7821,128.54
0.258398,40.6599,129.22
0.259766,40.665,129.9
0.26123,40.57,130.58
0.262598,40.4843,131.26
0.263916,40.5355,131.94
0.265186,40.3743,132.62
0.266504,40.1671,133.3
0.267969,40.0895,133.98
0.269336,40.1171,134.66
0.270654,39.9939,135.34
0.271924,39.8596,136.02
0.273291,39.8162,136.7
0.274756,39.8956,137.38
0.276172,39.6855,138.06
0.277539,39.4872,138.74
0.278809,39.3753,139.42
0.280176,39.4067,140.1
0.281592,39.2717,140.78
0.282959,39.0641,141.46
0.284277,39.0882,142.14
0.285547,39.0564,142.82
0.286914,38.9539,143.5
0.288379,38.7288,144.18
0.289795,38.5962,144.86
0.291113,38.6853,145.54
0.292383,38.4872,146.22
0.293848,38.4554,146.9
0.295215,38.4955,147.58
0.296582,38.0193,148.26
0.2979,37.8384,148.94
0.29917,37.7575,149.62
0.300586,37.7952,150.3
0.301953,37.7528,150.98
0.30332,37.5856,151.66
0.304639,37.518,152.34
0.305908,37.6038,153.02
0.307373,37.5595,153.7
0.308838,37.4074,154.38
0.310156,37.4098,155.06
0.311475,36.957,155.74
0.312793,36.8847,156.42
0.314209,36.8201,157.1
0.315625,36.88,157.78
0.316943,36.9133,158.46
0.3182129,36.7994,159.14
0.31958,36.7847,159.82
0.3209961,36.9482,160.5
0.322412,36.8768,161.18
0.323779,36.84,161.86
0.325049,36.8615,162.54
0.326367,36.9043,163.22
0.327832,36.9734,163.9
0.329248,36.9151,164.58
0.330566,36.9315,165.26
0.331836,36.3425,165.94
0.333154,36.3302,166.62
0.334619,36.3841,167.3
0.335986,36.4273,167.98
0.337305,36.5956,168.66
0.338574,36.6307,169.34
0.339941,36.4265,170.02
0.341455,36.5868,170.7
0.342822,36.8441,171.38
0.344141,36.7416,172.06
0.34541,36.7263,172.74
0.346777,36.8877,173.42
0.348242,36.9819,174.1
0.349609,36.9497,174.78
0.350928,36.9375,175.46
0.352197,36.963,176.14
0.353613,37.134,176.82
0.355078,37.0657,177.5
0.356445,37.0206,178.18
0.357764,37.1045,178.86
0.359033,37.2011,179.54
0.360449,37.138,180.22
0.361865,36.9967,180.9
0.363184,36.3791,181.58
0.364502,36.5886,182.26
0.365771,36.5038,182.94
0.367139,36.5284,183.62
0.368604,36.6549,184.3
0.369971,36.7433,184.98
0.37124,36.696,185.66
0.372559,36.6129,186.34
0.374023,36.851,187.02
0.375439,36.9335,187.7
0.376807,36.8151,188.38
0.378125,36.8033,189.06
0.379395,36.9556,189.74
0.380859,37.0635,190.42
0.382227,36.9845,191.1
0.383594,36.9766,191.78
0.384863,37.0559,192.46
0.386182,37.2225,193.14
0.387646,37.1462,193.82
0.389063,37.0936,194.5
0.39043,37.1701,195.18
0.391699,37.2239,195.86
0.393018,37.0891,196.54
0.394482,37.069,197.22
0.39585,37.1109,197.9
0.396484,1.35519,198.202