File: Data/Thesis_Samples_Data/Flexural_Cast_3/Flexural_Cast_3.csv
"File Path: C:\Users\Lab User\Desktop\Will\Thesis Tests\Test Run 9 04-8-22 15 25 28 PM\DAQ- Crosshead, … - (Timed).txt   ",,
Test: MTS EM Flexure (3-Point Bend) - Will 1,,
Test Run: Test Run 9,,
Date: 4/8/2022 3:23:26 PM,,
,,
,,
Crosshead ,Load ,Time
mm,N,sec
4.88E-05,5.98596,0.02
0.000195312,5.99929,0.22
0.000488281,6.22404,0.42
0.000927734,7.04977,0.62
0.001367187,7.80833,0.82
0.001806641,8.59221,1.02
0.002294922,9.19181,1.22
0.002734375,10.0038,1.42
0.003173828,10.7759,1.62
0.003613281,11.5547,1.82
0.004003906,12.2808,2.02
0.00444336,12.7839,2.22
0.004833984,13.5942,2.42
0.00522461,14.3331,2.62
0.005615234,14.9534,2.82
0.006054688,15.502,3.02
0.006396484,16.1099,3.22
0.006787109,16.8234,3.42
0.007177734,17.3871,3.62
0.007568359,18.0742,3.82
0.007958984,18.6861,4.02
0.00834961,19.3724,4.22
0.008789062,20.062,4.42
0.009228515,20.8325,4.62
0.009667969,21.4275,4.82
0.0100586,22.1111,5.02
0.010498,22.5886,5.22
0.0109375,23.4137,5.42
0.0113281,23.8713,5.62
0.01171875,24.6117,5.82
0.0121094,25.0485,6.02
0.0125,25.6397,6.22
0.0128418,26.2768,6.42
0.0132324,26.7906,6.62
0.0135742,27.4491,6.82
0.0139648,27.9544,7.02
0.0143555,28.5466,7.22
0.0147461,29.1351,7.42
0.0151855,29.8646,7.62
0.015625,30.4194,7.82
0.0160645,31.088,8.02
0.0164551,31.7823,8.22
0.0168945,32.4449,8.42
0.017334,33.1487,8.62
0.0177246,33.6572,8.82
0.0181152,34.2833,9.02
0.01850586,34.9169,9.22
0.0188965,35.559,9.42
0.01928711,36.134,9.62
0.0196289,36.7306,9.82
0.0200195,37.3262,10.02
0.0204102,37.9159,10.22
0.02080078,38.6093,10.42
0.0211914,39.222,10.62
0.021582,39.7745,10.82
0.0219727,40.4988,11.02
0.0224121,41.3018,11.22
0.0228516,42.0484,11.42
0.023291,42.7206,11.62
0.0236816,43.3597,11.82
0.0241211,44.0556,12.02
0.0245117,44.8182,12.22
0.0249023,45.3956,12.42
0.025293,46.0745,12.62
0.0256836,46.6335,12.82
0.0260742,47.3596,13.02
0.0264648,48.0874,13.22
0.0268066,48.6649,13.42
0.0271973,49.2511,13.62
0.02758789,49.9754,13.82
0.0279785,50.7352,14.02
0.0283691,51.4335,14.22
0.0287598,52.18,14.42
0.0291992,52.9628,14.62
0.0296387,53.7687,14.82
0.0300293,54.5369,15.02
0.0304687,55.3381,15.22
0.0308594,56.0554,15.42
0.03125,56.8519,15.62
0.0316406,57.6715,15.82
0.03203125,58.4625,16.02
0.0324219,59.2,16.22
0.0328125,59.931,16.42
0.0332031,60.6345,16.62
0.0335449,61.5212,16.82
0.0339355,62.3019,17.02
0.0343262,63.0241,17.22
0.0347168,63.9676,17.42
0.0351074,64.9168,17.62
0.0355469,65.925,17.82
0.03598633,66.9708,18.02
0.0364258,67.9268,18.22
0.0368652,68.9636,18.42
0.0372559,69.9898,18.62
0.0376953,70.9942,18.82
0.0380859,71.9349,19.02
0.0384766,72.9385,19.22
0.0388672,73.8773,19.42
0.0392578,74.8851,19.62
0.0396484,75.9779,19.82
0.0399902,76.8792,20.02
0.0403809,77.8677,20.22
0.0407715,78.9278,20.42
0.0411621,80.2189,20.62
0.0415527,81.3519,20.82
0.0419922,82.561,21.02
0.0423828,83.7487,21.22
0.0428223,85.1847,21.42
0.04326172,86.5868,21.62
0.0437012,87.7942,21.82
0.0440918,88.9424,22.02
0.0444824,90.2581,22.22
0.0449219,91.4839,22.42
0.04526367,92.809,22.62
0.0456543,94.0948,22.82
0.0460449,95.3922,23.02
0.0464355,96.5978,23.22
0.0468262,97.9805,23.42
0.04716797,99.3166,23.62
0.0475586,100.823,23.82
0.0479492,102.21,24.02
0.0483887,103.747,24.22
0.0487793,105.502,24.42
0.04921875,107.221,24.62
0.0496582,109.125,24.82
0.0500977,110.714,25.02
0.0504883,112.425,25.22
0.0509277,114.092,25.42
0.0513184,115.819,25.62
0.051709,117.513,25.82
0.0520996,119.172,26.02
0.0524902,120.864,26.22
0.05288086,122.552,26.42
0.0532715,124.344,26.62
0.0536133,126.063,26.82
0.0540039,127.867,27.02
0.0543945,129.702,27.22
0.0547852,131.616,27.42
0.0552246,133.904,27.62
0.0556152,136.259,27.82
0.0560547,138.482,28.02
0.05649414,140.769,28.22
0.0569336,143.265,28.42
0.0573242,145.524,28.62
0.0577148,147.741,28.82
0.05810547,150.017,29.02
0.0584961,152.486,29.22
0.0588867,154.748,29.42
0.0592773,156.828,29.62
0.059668,159.216,29.82
0.0600098,161.509,30.02
0.0604004,163.919,30.22
0.0607422,166.352,30.42
0.0611328,168.854,30.62
0.0615234,171.526,30.82
0.0619629,174.287,31.02
0.0624023,177.319,31.22
0.0628418,180.328,31.42
0.0632324,183.42,31.62
0.063623,186.348,31.82
0.0640625,189.265,32.02
0.0644531,192.457,32.22
0.0648437,195.413,32.42
0.0652344,198.302,32.62
0.065625,201.218,32.82
0.0660156,204.263,33.02
0.0664063,207.09,33.22
0.066748,210.001,33.42
0.0671387,213.034,33.62
0.0675293,215.959,33.82
0.0679199,219.103,34.02
0.0683594,222.658,34.22
0.06875,226.067,34.42
0.0691895,229.568,34.62
0.0696289,233.329,34.82
0.0700684,236.76,35.02
0.070459,240.044,35.22
0.0708984,243.442,35.42
0.0712891,246.335,35.62
0.0717285,249.851,35.82
0.07207031,252.769,36.02
0.0724609,255.958,36.22
0.0728516,259.14,36.42
0.07324219,262.144,36.62
0.073584,265.284,36.82
0.07397461,268.611,37.02
0.0743652,271.558,37.22
0.0747559,275.009,37.42
0.0751953,278.498,37.62
0.0755859,282.284,37.82
0.07602539,285.751,38.02
0.0764648,289.498,38.22
0.0768555,293.169,38.42
0.0772949,296.744,38.62
0.0776855,300.287,38.82
0.0780762,303.504,39.02
0.0784668,306.493,39.22
0.0789062,310.055,39.42
0.07924805,313.079,39.62
0.0796387,316.238,39.82
0.0799805,319.652,40.02
0.0803711,322.749,40.22
0.0807617,326.355,40.42
0.0811035,329.783,40.62
0.081543,333.384,40.82
0.0819336,337.191,41.02
0.082373,341.303,41.22
0.0828125,345.375,41.42
0.083252,348.91,41.62
0.0836914,352.591,41.82
0.084082,356.359,42.02
0.0845215,360.003,42.22
0.0849121,363.238,42.42
0.0853027,366.175,42.62
0.0856934,367.327,42.82
0.086084,369.705,43.02
0.0864258,372.905,43.22
0.0868164,376.292,43.42
0.08720703,379.371,43.62
0.0875977,382.775,43.82
0.0879883,168.871,44.02
0.0884277,122.603,44.22
0.0888672,116.95,44.42
0.08925781,114.113,44.62
0.0896973,112.154,44.82
0.0900879,111.202,45.02
0.0905273,110.156,45.22
0.090918,108.879,45.42
0.0913086,107.555,45.62
0.0916992,106.019,45.82
0.0920898,104.789,46.02
0.09248047,103.842,46.22
0.0928711,102.595,46.42
0.0932617,100.692,46.62
0.0936035,99.0338,46.82
0.0939941,97.9527,47.02
0.0943848,96.5681,47.22
0.0947754,95.0691,47.42
0.095166,93.7093,47.62
0.0956055,92.4186,47.82
0.0959961,91.5307,48.02
0.0964355,90.5516,48.22
0.0968262,89.7271,48.42
0.0972656,88.8738,48.62
0.0976563,88.0122,48.82
0.0980957,87.2763,49.02
0.0984375,86.6683,49.22
0.0988281,86.1084,49.42
0.0992187,85.8723,49.62
0.0996094,85.4913,49.82
0.0999512,85.061,50.02
0.1003418,83.8293,50.22
0.100732,81.4603,50.42
0.101123,72.0112,50.62
0.101514,60.5595,50.82
0.101953,54.6489,51.02
0.102393,51.925,51.22
0.102832,50.4414,51.42
0.103223,49.3727,51.62
0.103662,48.5237,51.82
0.104102,47.672,52.02
0.104492,46.8051,52.22
0.104932,46.11,52.42
0.105322,45.4906,52.62
0.105713,44.7805,52.82
0.106055,44.3945,53.02
0.106445,43.8568,53.22
0.106836,43.4688,53.42
0.107227,42.9709,53.62
0.107568,42.5095,53.82
0.107959,41.9723,54.02
0.108398,41.5096,54.22
0.108789,41.1721,54.42
0.109277,40.6874,54.62
0.109668,40.1852,54.82
0.110059,39.6877,55.02
0.110498,39.3053,55.22
0.110889,38.8091,55.42
0.111035,38.5396,55.491