File: Data/Thesis_Samples_Data/Flexural_Solid_2/Flexural_Solid_2.csv
"File Path: C:\Users\Lab User\Desktop\Will\Thesis Tests\Test Run 5 04-8-22 14 58 01 PM\DAQ- Crosshead, … - (Timed).txt   ",,
Test: MTS EM Flexure (3-Point Bend) - Will 1,,
Test Run: Test Run 5,,
Date: 4/8/2022 2:54:07 PM,,
,,
,,
Crosshead ,Load ,Time
mm,N,sec
0,1.45294,0.02
0.000195312,1.65236,0.26
0.000585938,1.73313,0.5
0.001123047,2.29137,0.74
0.001855469,3.40722,0.98
0.002392578,4.07522,1.22
0.002880859,4.94622,1.46
0.003369141,5.57888,1.7
0.003808594,6.13118,1.94
0.004248047,6.89339,2.18
0.004736328,7.3531,2.42
0.005175781,7.96628,2.66
0.005664062,8.76931,2.9
0.006201172,9.34487,3.14
0.006738281,10.1451,3.38
0.007226563,10.91819,3.62
0.007763672,11.517,3.86
0.008251953,12.4153,4.1
0.008740234,13.1782,4.34
0.009228515,13.9692,4.58
0.009667969,14.7996,4.82
0.01015625,15.4426,5.06
0.0105957,16.4195,5.3
0.0110352,17.2581,5.54
0.0115234,18.0517,5.78
0.01196289,19.1169,6.02
0.0125,20.0889,6.26
0.0129883,21.1808,6.5
0.01352539,22.245,6.74
0.0140137,23.241,6.98
0.014502,24.3987,7.22
0.0149902,25.4959,7.46
0.0154785,26.4094,7.7
0.015918,27.5075,7.94
0.0164062,28.6164,8.18
0.0168457,29.6037,8.42
0.0172852,30.7462,8.66
0.0177246,31.5356,8.9
0.0182129,32.7148,9.14
0.0186523,33.929,9.38
0.0191406,34.9036,9.62
0.0196777,36.3813,9.86
0.020166,37.531,10.1
0.0207031,38.8282,10.34
0.0211914,40.1625,10.58
0.0216797,41.21,10.82
0.02211914,42.5788,11.06
0.0226074,43.835,11.3
0.0230469,44.8196,11.54
0.0234863,46.3011,11.78
0.02397461,47.4557,12.02
0.0244141,48.6141,12.26
0.0248535,50.1014,12.5
0.0253418,51.3653,12.74
0.0258301,52.8253,12.98
0.0263672,54.3679,13.22
0.0269043,55.8455,13.46
0.0274414,57.4235,13.7
0.0279297,58.9478,13.94
0.02841797,60.2965,14.18
0.02890625,61.9422,14.42
0.02939453,63.2122,14.66
0.029834,64.7198,14.9
0.0302734,66.2405,15.14
0.0307617,67.5611,15.38
0.0312012,69.1869,15.62
0.0316406,70.774,15.86
0.0321289,72.2287,16.1
0.0326172,74.2044,16.34
0.0331543,75.7868,16.58
0.0336914,77.6179,16.82
0.0341797,79.3763,17.06
0.03466797,81.0078,17.3
0.0351562,82.7723,17.54
0.0356445,84.5196,17.78
0.036084,86.135,18.02
0.0365234,88.005,18.26
0.03701172,89.5644,18.5
0.0374512,91.2635,18.74
0.0378906,93.0191,18.98
0.0383301,94.8071,19.22
0.0388184,96.7481,19.46
0.03930664,98.7926,19.7
0.0398438,100.922,19.94
0.0403809,103.258,20.18
0.0408691,105.287,20.42
0.0413574,94.5503,20.66
0.0418457,96.4382,20.9
0.042334,99.0082,21.14
0.0428223,101.774,21.38
0.04326172,104.1,21.62
0.04375,106.283,21.86
0.0441895,108.386,22.1
0.0446289,110.32,22.34
0.0450684,112.475,22.58
0.0455566,114.766,22.82
0.0460938,117.002,23.06
0.04658203,119.552,23.3
0.0471191,122.094,23.54
0.04760742,124.368,23.78
0.0480957,126.82,24.02
0.048584,129.124,24.26
0.0490723,131.528,24.5
0.0495605,133.949,24.74
0.05,136.102,24.98
0.0504395,138.562,25.22
0.0508789,140.997,25.46
0.0513184,143.498,25.7
0.0518066,146.307,25.94
0.0522949,149.25,26.18
0.0527832,152.531,26.42
0.0532715,156.3,26.66
0.0538086,159.689,26.9
0.0542969,163.323,27.14
0.0547852,166.753,27.38
0.0552734,170.434,27.62
0.05576172,174.311,27.86
0.05620117,177.641,28.1
0.0566406,181.243,28.34
0.0571289,184.932,28.58
0.0575684,188.484,28.82
0.0580078,192.343,29.06
0.0584961,196.089,29.3
0.0589844,199.95,29.54
0.0594727,204.499,29.78
0.0600098,209.101,30.02
0.0605469,213.451,30.26
0.0610352,218.068,30.5
0.0615234,222.404,30.74
0.0620117,226.71,30.98
0.0625,230.905,31.22
0.0629395,234.772,31.46
0.0634277,238.669,31.7
0.0638672,242.74,31.94
0.0643066,246.548,32.18
0.0647461,250.41,32.42
0.0652344,254.66,32.66
0.0657227,259.198,32.9
0.0662109,263.872,33.14
0.066748,268.869,33.38
0.0672852,273.663,33.62
0.0677734,277.934,33.86
0.0682617,282.379,34.1
0.06875,286.89,34.34
0.0691895,291.175,34.58
0.0696777,295.283,34.82
0.0701172,299.648,35.06
0.0705566,303.83,35.3
0.0709961,308.241,35.54
0.0714844,312.508,35.78
0.0719727,316.952,36.02
0.0724121,321.758,36.26
0.0729492,323.493,36.5
0.0734863,326.885,36.74
0.0740234,330.812,36.98
0.0745117,334.608,37.22
0.075,339.045,37.46
0.0754883,343.343,37.7
0.0759766,347.357,37.94
0.076416,351.45,38.18
0.0769043,355.295,38.42
0.07734375,359.04,38.66
0.0777832,363.175,38.9
0.0782227,367.228,39.14
0.0787109,371.547,39.38
0.0791992,376.42,39.62
0.0797363,381.379,39.86
0.0802246,386.391,40.1
0.0807129,391.072,40.34
0.0812012,395.568,40.58
0.0817383,394.85,40.82
0.0821777,393.878,41.06
0.0826172,390.494,41.3
0.0831055,387.247,41.54
0.0835449,386.809,41.78
0.0839844,384.946,42.02
0.0844238,376.864,42.26
0.0849121,371.077,42.5
0.0853516,366.3,42.74
0.0858398,360.321,42.98
0.086377,353.074,43.22
0.0868652,348.473,43.46
0.0874023,342.829,43.7
0.0878906,337.387,43.94
0.0883789,331.191,44.18
0.0888672,326.543,44.42
0.0893066,321.272,44.66
0.0897949,313.771,44.9
0.0902344,305.404,45.14
0.0907227,295.11,45.38
0.09116211,276.914,45.62
0.0916504,258.546,45.86
0.0920898,253.193,46.1
0.092627,249.776,46.34
0.0931641,244.281,46.58
0.0936523,228.905,46.82
0.0941895,217.213,47.06
0.0946777,208.357,47.3
0.095166,200.394,47.54
0.0956055,196.722,47.78
0.0960937,194.89,48.02
0.096582,194.142,48.26
0.0970215,192.741,48.5
0.0974609,192.119,48.74
0.0979004,191.456,48.98
0.0983887,191.008,49.22
0.0988281,190.517,49.46
0.0993652,189.782,49.7
0.0998535,187.553,49.94
0.100391,184.473,50.18
0.100879,180.899,50.42
0.101367,176.973,50.66
0.101855,174.166,50.9
0.102344,171.414,51.14
0.102783,169.192,51.38
0.103271,166.973,51.62
0.103711,164.715,51.86
0.10415,162.505,52.1
0.10459,160.204,52.34
0.105078,157.958,52.58
0.105566,156.192,52.82
0.106055,154.389,53.06
0.106592,151.048,53.3
0.107129,123,53.54
0.107617,117.861,53.78
0.108105,114.382,54.02
0.108594,109.524,54.26
0.109082,106.51,54.5
0.109521,103.916,54.74
0.11001,101.195,54.98
0.110449,99.2737,55.22
0.110938,97.2867,55.46
0.111377,95.1222,55.7
0.111816,93.408,55.94
0.112305,91.9697,56.18
0.112793,90.8202,56.42
0.11333,89.7979,56.66
0.113867,88.1122,56.9
0.114355,87.0227,57.14
0.114844,85.8796,57.38
0.115283,84.7091,57.62
0.115771,83.715,57.86
0.11626,82.4141,58.1
0.116699,81.3078,58.34
0.117139,80.4609,58.58
0.117578,79.082,58.82
0.118018,75.5924,59.06
0.118506,68.0966,59.3
0.118994,63.9168,59.54
0.119482,60.0174,59.78
0.12002,57.9632,60.02
0.120508,57.1205,60.26
0.120996,55.5594,60.5
0.121484,54.2505,60.74
0.121973,53.3001,60.98
0.122461,52.4678,61.22
0.1229,51.6595,61.46
0.12334,51.1075,61.7
0.123828,50.3513,61.94
0.124268,49.9862,62.18
0.124707,49.6186,62.42
0.125195,48.9035,62.66
0.125684,48.4685,62.9
0.126172,47.8706,63.14
0.126758,47.0706,63.38
0.127246,46.207,63.62
0.127734,45.2534,63.86
0.128271,44.5562,64.1
0.128711,43.914,64.34
0.129199,43.3027,64.58
0.129687,42.9109,64.82
0.130127,42.3077,65.06
0.130566,42.0041,65.3
0.131055,41.5641,65.54
0.131494,41.079,65.78
0.131982,40.8668,66.02
0.132471,40.4652,66.26
0.132715,39.037,66.371