File: Data/Thesis_Samples_Data/Flexural_Layered_3/Flexural_Layered_3.csv
"File Path: C:\Users\Lab User\Desktop\Will\Thesis Tests\Test Run 3 04-8-22 14 45 16 PM\DAQ- Crosshead, … - (Timed).txt   ",,
Test: MTS EM Flexure (3-Point Bend) - Will 1,,
Test Run: Test Run 3,,
Date: 4/8/2022 2:21:31 PM,,
,,
,,
Crosshead ,Load ,Time
mm,N,sec
4.88E-05,4.32616,0.02
0.009326171,9.39225,4.64
0.0184082,14.0279,9.26
0.027832,18.7036,13.88
0.0369629,23.162,18.5
0.0461426,27.454,23.12
0.0555664,31.031,27.74
0.06464844,21.5774,32.36
0.07397461,24.1042,36.98
0.083252,25.23,41.6
0.0923828,18.1393,46.22
0.101709,20.6156,50.84
0.110889,22.9558,55.46
0.120166,24.7209,60.08
0.129443,26.3737,64.7
0.138525,28.5056,69.32
0.147949,27.1253,73.94
0.157129,28.7173,78.56
0.16626,30.0307,83.18
0.175684,31.7256,87.8
0.184766,32.9813,92.42
0.194141,34.4357,97.04
0.20332,35.8469,101.66
0.2125,37.585,106.28
0.221875,38.957,110.9
0.231006,39.9011,115.52
0.240283,36.6904,120.14
0.249561,17.965,124.76
0.258691,18.6658,129.38
0.268018,19.5254,134
0.277246,20.5406,138.62
0.286426,21.3021,143.24
0.295801,22.3056,147.86
0.304834,23.1252,152.48
0.314258,23.068,157.1
0.323486,23.7084,161.72
0.332617,24.1347,166.34
0.341943,24.6739,170.96
0.351123,25.3812,175.58
0.360449,25.7471,180.2
0.369678,23.7774,184.82
0.378809,24.0749,189.44
0.388184,21.5531,194.06
0.397363,21.1861,198.68
0.406543,12.415,203.3
0.415869,12.7981,207.92
0.425,13.0905,212.54
0.434326,13.3057,217.16
0.443555,13.7436,221.78
0.452734,14.0977,226.4
0.462109,14.4458,231.02
0.471191,14.6068,235.64
0.480518,14.9287,240.26
0.489844,15.0895,244.88
0.498877,15.4442,249.5
0.508301,15.8274,254.12
0.51748,16.1257,258.74
0.526709,16.5417,263.36
0.535986,16.7753,267.98
0.545117,16.9767,272.6
0.554492,17.1424,277.22
0.563721,17.4523,281.84
0.572803,17.7244,286.46
0.582227,18.0313,291.08
0.591357,18.1751,295.7
0.600635,18.4966,300.32
0.609912,18.5188,304.94
0.618994,18.689,309.56
0.628418,18.9349,314.18
0.637549,19.0989,318.8
0.646826,19.3351,323.42
0.656152,19.4642,328.04
0.665186,19.453,332.66
0.674609,19.7493,337.28
0.683789,20.0869,341.9
0.693018,20.2865,346.52
0.702295,20.2129,351.14
0.711475,20.2816,355.76
0.720801,20.5652,360.38
0.730029,20.7425,365
0.739111,21.0697,369.62
0.748584,21.2511,374.24
0.757715,21.2546,378.86
0.766943,21.3362,383.48
0.77627,21.5647,388.1
0.785352,21.7849,392.72
0.794775,22.0886,397.34
0.803857,22.1601,401.96
0.813135,22.3889,406.58
0.822461,22.4567,411.2
0.831543,22.542,415.82
0.840918,22.8203,420.44
0.850146,22.9265,425.06
0.859326,22.8498,429.68
0.868652,22.8707,434.3
0.877832,23.0317,438.92
0.887109,23.1332,443.54
0.896387,23.0336,448.16
0.90542,23.2858,452.78
0.914893,23.4877,457.4
0.924072,23.5082,462.02
0.933252,23.7008,466.64
0.942578,23.3699,471.26
0.951709,23.5847,475.88
0.961035,23.8359,480.5
0.970215,24.0043,485.12
0.979443,24.2467,489.74
0.98877,24.4233,494.36
0.997949,22.3187,498.98
1.00718,21.9551,503.6
1.01646,22.0351,508.22
1.02559,22.26,512.84
1.03496,22.5941,517.46
1.04414,22.783,522.08
1.05337,18.7426,526.7
1.0627,19.0007,531.32
1.07178,19.2537,535.94
1.0812,15.9227,540.56
1.09043,16.1524,545.18
1.09951,16.3072,549.8
1.10889,16.292,554.42
1.11802,16.418,559.04
1.12734,16.4789,563.66
1.13657,16.7822,568.28
1.1457,16.7408,572.9
1.15513,16.6883,577.52
1.16426,16.8712,582.14
1.17349,17.0035,586.76
1.18281,17.0077,591.38
1.19199,17.1283,596
1.20122,17.3565,600.62
1.2105,17.2335,605.24
1.21963,17.5313,609.86
1.229,17.5388,614.48
1.23813,17.5211,619.1
1.24746,17.7872,623.72
1.25674,17.7124,628.34
1.26582,18.0707,632.96
1.2752,17.9367,637.58
1.28437,18.0515,642.2
1.29365,18.1766,646.82
1.30288,18.2316,651.44
1.31206,18.4654,656.06
1.32144,18.4329,660.68
1.33062,18.5216,665.3
1.33975,18.5616,669.92
1.34912,18.6153,674.54
1.3583,18.8041,679.16
1.36758,18.6874,683.78
1.37681,18.9249,688.4
1.38594,18.859,693.02
1.39536,18.7845,697.64
1.40444,19.0728,702.26
1.41377,19.152,706.88
1.42305,19.0439,711.5
1.43213,19.1455,716.12
1.44155,19.183,720.74
1.45073,19.2471,725.36
1.45996,19.4109,729.98
1.46924,19.4816,734.6
1.47837,19.4403,739.22
1.48774,19.6248,743.84
1.49697,19.732,748.46
1.50601,19.6982,753.08
1.51548,19.821,757.7
1.52461,19.9129,762.32
1.53384,19.9458,766.94
1.54312,19.9858,771.56
1.55229,19.7819,776.18
1.56172,19.947,780.8
1.5708,19.9858,785.42
1.58008,20.196,790.04
1.5894,20.1645,794.66
1.59849,20.2566,799.28
1.60781,19.9567,803.9
1.61704,20.0199,808.52
1.62622,20.2541,813.14
1.63555,20.4049,817.76
1.64473,20.4856,822.38
1.65405,20.1891,827
1.66328,20.2686,831.62
1.67236,20.5714,836.24
1.68179,20.5548,840.86
1.69097,20.6073,845.48
1.70015,20.6501,850.1
1.70952,20.4346,854.72
1.7186,20.6407,859.34
1.72798,20.5042,863.96
1.73711,20.8639,868.58
1.74634,20.8593,873.2
1.75571,20.919,877.82
1.76479,20.9703,882.44
1.77412,21.1253,887.06
1.7834,21.258,891.68
1.79258,21.265,896.3
1.80186,21.3597,900.92
1.81104,21.1818,905.54
1.82031,21.3935,910.16
1.82964,21.5587,914.78
1.83867,21.5689,919.4
1.84805,21.5021,924.02
1.85732,21.3649,928.64
1.86641,21.715,933.26
1.87583,21.6239,937.88
1.88491,21.9241,942.5
1.89429,21.8555,947.12
1.90347,21.7931,951.74
1.9127,22.0566,956.36
1.92202,22.1827,960.98
1.9312,22.0585,965.6
1.94043,22.0996,970.22
1.94971,22.3288,974.84
1.95889,22.3179,979.46
1.96816,22.055,984.08
1.97739,22.4884,988.7
1.98657,22.2517,993.32
1.99595,22.5029,997.94
2.00498,22.6236,1002.56
2.0144,22.5515,1007.18
2.02363,22.7378,1011.8
2.03276,22.9113,1016.42
2.04214,22.4766,1021.04
2.05127,22.855,1025.66
2.0606,22.7964,1030.28
2.06982,23.0408,1034.9
2.07896,23.107,1039.52
2.08833,23.1133,1044.14
2.09751,23.2805,1048.76
2.10669,23.4634,1053.38
2.11606,22.9828,1058
2.1252,23.3518,1062.62
2.13452,23.6612,1067.24
2.1437,23.7322,1071.86
2.15293,23.7678,1076.48
2.1623,23.7877,1081.1
2.17134,23.6614,1085.72
2.18071,23.9231,1090.34
2.18994,23.9756,1094.96
2.19907,24.0549,1099.58
2.20845,24.0993,1104.2
2.21758,24.3499,1108.82
2.2269,24.3039,1113.44
2.23613,23.3395,1118.06
2.24526,23.6878,1122.68
2.25464,23.9097,1127.3
2.26382,24.1931,1131.92
2.27305,24.1458,1136.54
2.28237,24.2115,1141.16
2.29155,24.2104,1145.78
2.30083,24.4285,1150.4
2.31006,24.5979,1155.02
2.31924,24.5917,1159.64
2.32861,24.5919,1164.26
2.33765,24.7128,1168.88
2.34702,23.5939,1173.5
2.3563,23.8109,1178.12
2.36538,23.9732,1182.74
2.37476,24.0416,1187.36
2.38394,24.1372,1191.98
2.39321,24.0817,1196.6
2.40244,24.1969,1201.22
2.41162,23.8428,1205.84
2.42095,24.1614,1210.46
2.43018,24.2243,1215.08
2.43931,24.346,1219.7
2.44868,24.3528,1224.32
2.45786,24.3093,1228.94
2.46709,24.6979,1233.56
2.47642,24.7708,1238.18
2.4855,24.7911,1242.8
2.49492,24.8787,1247.42
2.504,24.8694,1252.04
2.51333,24.9918,1256.66
2.52266,25.1448,1261.28
2.53174,25.3559,1265.9
2.54106,25.2035,1270.52
2.55029,25.2054,1275.14
2.55947,25.2238,1279.76
2.5688,25.2967,1284.38
2.57793,25.526,1289
2.58721,25.6331,1293.62
2.59653,25.5959,1298.24
2.60562,25.5818,1302.86
2.61504,25.4411,1307.48
2.62417,25.5029,1312.1
2.6334,25.6463,1316.72
2.64272,25.8601,1321.34
2.65186,25.8288,1325.96
2.66123,25.8707,1330.58
2.67036,25.9256,1335.2
2.67959,26.0732,1339.82
2.68896,26.0829,1344.44
2.69805,26.0038,1349.06
2.70732,25.9141,1353.68
2.71665,26.1683,1358.3
2.72578,26.0417,1362.92
2.73511,26.1092,1367.54
2.74429,26.1679,1372.16
2.75356,26.363,1376.78
2.76289,26.292,1381.4
2.77109,26.3188,1385.6