File: Data/Thesis_Samples_Data/Flexural_Solid_3/Flexural_Solid_3.csv
"File Path: C:\Users\Lab User\Desktop\Will\Thesis Tests\Test Run 6 04-8-22 15 05 49 PM\DAQ- Crosshead, … - (Timed).txt   ",,
Test: MTS EM Flexure (3-Point Bend) - Will 1,,
Test Run: Test Run 6,,
Date: 4/8/2022 2:59:47 PM,,
,,
,,
Crosshead ,Load ,Time
mm,N,sec
4.88E-05,4.10597,0.02
0.000292969,4.21189,0.3
0.000830078,4.78579,0.58
0.001513672,5.90947,0.86
0.002148437,7.03205,1.14
0.002783203,8.14715,1.42
0.003369141,9.172,1.7
0.003955078,10.228,1.98
0.004541016,11.5778,2.26
0.005078125,12.876,2.54
0.005615234,13.8864,2.82
0.006152344,14.9671,3.1
0.006689453,16.1815,3.38
0.007226563,17.4311,3.66
0.0078125,18.5369,3.94
0.008398438,19.7071,4.22
0.008984375,20.9701,4.5
0.009570313,22.2714,4.78
0.01015625,23.7431,5.06
0.0106934,25.0121,5.34
0.0112793,26.3537,5.62
0.0118164,27.844,5.9
0.0123047,29.2714,6.18
0.0128418,30.7096,6.46
0.0133789,31.9052,6.74
0.013916,33.4732,7.02
0.014502,35.0977,7.3
0.01508789,36.6478,7.58
0.0157227,38.253,7.86
0.0163086,39.9493,8.14
0.0168945,41.642,8.42
0.0174805,43.3026,8.7
0.0180176,44.7717,8.98
0.0185547,46.2113,9.26
0.0190918,47.9112,9.54
0.0196289,49.4279,9.82
0.020166,51.0046,10.1
0.0207031,52.4559,10.38
0.0212891,54.255,10.66
0.0219238,56.2614,10.94
0.0225098,57.9782,11.22
0.0230469,59.7095,11.5
0.0236328,61.5633,11.78
0.0242188,63.2372,12.06
0.02475586,65.0151,12.34
0.025293,66.6681,12.62
0.0258301,68.2506,12.9
0.0263184,70.0779,13.18
0.0268555,71.9119,13.46
0.0273926,73.7875,13.74
0.0279785,75.663,14.02
0.0285645,77.8781,14.3
0.0291504,80.1971,14.58
0.0297363,82.3624,14.86
0.0303223,84.3547,15.14
0.0308594,86.3817,15.42
0.0313965,88.5642,15.7
0.0319336,90.6359,15.98
0.0324707,92.49,16.26
0.0330078,94.3677,16.54
0.0335449,96.5396,16.82
0.03408203,98.7946,17.1
0.03466797,101.07,17.38
0.0352539,103.52,17.66
0.0358887,106.082,17.94
0.0364746,108.745,18.22
0.0370605,111.344,18.5
0.0376465,113.769,18.78
0.0381836,116.332,19.06
0.0387207,118.735,19.34
0.0392578,119.253,19.62
0.0397949,121.73,19.9
0.04033203,124.181,20.18
0.0408691,126.905,20.46
0.0414551,129.873,20.74
0.042041,132.964,21.02
0.042627,135.373,21.3
0.0432129,138.355,21.58
0.0437988,141.154,21.86
0.0443359,143.9,22.14
0.044873,146.208,22.42
0.0454102,148.635,22.7
0.0459473,151.302,22.98
0.0464355,153.725,23.26
0.0470215,156.491,23.54
0.0475586,159.514,23.82
0.0481445,163.185,24.1
0.0487305,166.846,24.38
0.0493164,170.542,24.66
0.0499023,174.331,24.94
0.0504883,177.9,25.22
0.0510742,181.68,25.5
0.0516113,185.168,25.78
0.0521484,188.491,26.06
0.0526855,191.882,26.34
0.05317383,195.15,26.62
0.0537109,198.838,26.9
0.0542969,202.398,27.18
0.0548828,206.243,27.46
0.0555176,209.926,27.74
0.0561035,212.792,28.02
0.0566895,214.027,28.3
0.0572266,212.581,28.58
0.0578125,213.824,28.86
0.0583496,215.688,29.14
0.05883789,217.15,29.42
0.059375,218.688,29.7
0.0599121,219.879,29.98
0.06044922,221.335,30.26
0.0609863,221.057,30.54
0.0615723,220.962,30.82
0.062207,221.177,31.1
0.06274414,221.477,31.38
0.0633301,221.728,31.66
0.063916,222.564,31.94
0.064502,222.213,32.22
0.0649902,220.063,32.5
0.0655273,218.854,32.78
0.0660645,219.239,33.06
0.0666016,219.622,33.34
0.0671387,221.465,33.62
0.0676758,223.605,33.9
0.0683105,225.955,34.18
0.0688965,227.795,34.46
0.0695312,229.41,34.74
0.0701172,230.518,35.02
0.0706543,231.159,35.3
0.0712402,230.006,35.58
0.0717773,225.575,35.86
0.0722656,221.904,36.14
0.0728027,221.886,36.42
0.0733398,222.624,36.7
0.073877,224.399,36.98
0.0744629,226.514,37.26
0.0750488,228.963,37.54
0.0756348,231.009,37.82
0.0762207,232.154,38.1
0.0768066,231.753,38.38
0.0773926,230.933,38.66
0.07792969,229.034,38.94
0.0784668,224.719,39.22
0.0790039,218.591,39.5
0.079541,215.59,39.78
0.0800293,214.475,40.06
0.0806152,213.984,40.34
0.0811523,214.2,40.62
0.0817871,214.359,40.9
0.082373,214.569,41.18
0.082959,214.204,41.46
0.0835449,213.519,41.74
0.0841309,212.431,42.02
0.084668,211.665,42.3
0.08520508,210.625,42.58
0.0857422,209.943,42.86
0.0862793,208.531,43.14
0.0868164,206.379,43.42
0.0873535,204.719,43.7
0.08793945,200.463,43.98
0.08852539,199.07,44.26
0.08911133,198.638,44.54
0.0896973,198.375,44.82
0.0902832,197.329,45.1
0.0908203,196.101,45.38
0.0913574,195.408,45.66
0.09189453,194.734,45.94
0.0924316,193.978,46.22
0.0929688,193.264,46.5
0.093457,192.733,46.78
0.0939941,192.466,47.06
0.0945801,191.937,47.34
0.095166,190.889,47.62
0.09580078,189.907,47.9
0.0963867,187.87,48.18
0.0969727,185.649,48.46
0.0975098,183.545,48.74
0.0980469,181.399,49.02
0.098584,179.905,49.3
0.0991211,178.47,49.58
0.0996582,176.478,49.86
0.100195,174.375,50.14
0.100732,171.966,50.42
0.101318,168.454,50.7
0.101953,164.791,50.98
0.102588,162.018,51.26
0.103125,158.454,51.54
0.103711,153.821,51.82
0.104248,150.841,52.1
0.104834,146.62,52.38
0.105322,142.752,52.66
0.105859,138.812,52.94
0.106396,135.148,53.22
0.106934,132.228,53.5
0.10752,130.038,53.78
0.108057,127.276,54.06
0.108643,124.158,54.34
0.109277,115.877,54.62
0.109863,107.907,54.9
0.110449,101.482,55.18
0.110986,98.331,55.46
0.111523,96.0822,55.74
0.112061,93.799,56.02
0.112598,91.5834,56.3
0.113135,89.5446,56.58
0.113623,87.7763,56.86
0.114209,84.9782,57.14
0.114746,81.9396,57.42
0.115381,79.1329,57.7
0.116016,75.9243,57.98
0.116602,72.9073,58.26
0.117139,69.4286,58.54
0.117725,66.1881,58.82
0.118262,64.0926,59.1
0.118799,62.6047,59.38
0.119336,61.2044,59.66
0.119873,60.0406,59.94
0.12041,58.9492,60.22
0.120947,58.1223,60.5
0.121533,57.33,60.78
0.122119,56.2096,61.06
0.122754,55.1213,61.34
0.123291,54.0189,61.62
0.123877,52.8788,61.9
0.124414,51.6411,62.18
0.124951,50.3851,62.46
0.125488,49.3776,62.74
0.126025,47.2669,63.02
0.126563,45.825,63.3
0.127051,44.4856,63.58
0.127637,43.5924,63.86
0.128223,42.9681,64.14
0.128809,42.3583,64.42
0.129395,41.559,64.7
0.12998,40.9016,64.98
0.130566,40.4471,65.26
0.131104,40.128,65.54
0.131641,39.7114,65.82
0.132178,39.2972,66.1
0.132715,38.9718,66.38
0.133203,38.6944,66.66
0.13374,38.5044,66.94
0.134326,38.3078,67.22
0.134912,37.9247,67.5
0.135547,37.8071,67.78
0.136133,37.6716,68.06
0.136719,37.3447,68.34
0.137305,37.0471,68.62
0.137842,36.8963,68.9
0.138379,36.7521,69.18
0.138916,36.4995,69.46
0.139453,36.1514,69.74
0.13999,35.9572,70.02
0.140527,35.6949,70.3
0.141113,35.7018,70.58
0.141699,35.3291,70.86
0.142334,34.9198,71.14
0.14292,34.7752,71.42
0.143457,34.676,71.7
0.144043,34.5157,71.98
0.14458,34.1177,72.26
0.145117,34.0049,72.54
0.145654,33.8654,72.82
0.146191,33.6676,73.1
0.146729,33.4069,73.38
0.147266,33.0984,73.66
0.147803,33.066,73.94
0.148437,32.829,74.22
0.149023,32.4212,74.5
0.149609,31.955,74.78
0.150195,31.7698,75.06
0.150781,31.7009,75.34
0.151318,31.3507,75.62
0.151855,30.9949,75.9
0.152393,30.6522,76.18
0.152881,27.7002,76.46
0.153418,26.6559,76.74
0.153955,25.1192,77.02
0.154541,24.9228,77.3
0.155127,24.8399,77.58
0.155762,24.7424,77.86
0.156348,24.5064,78.14
0.156885,24.288,78.42
0.157471,24.1369,78.7
0.158008,24.1718,78.98
0.158545,24.0036,79.26
0.159082,23.9369,79.54
0.159619,23.7726,79.82
0.160156,23.7439,80.1
0.160693,23.7035,80.38
0.160938,22.872,80.514